# Essai 	29G3P26W27Te64.8_1															

														
# Conditions aux limites moyennes :
																
#   Pression de sortie  26.17 bars
#   Temperature entree  65.58°C	 
#   Vitesse massique    3062.2 kg.m².s-¹	 
#   Puissance           27.2 kW
#   Flux                18.79 kW.m²	 
#   Titre de sortie     0.0596	

																
# Donnees scalaires :

# Nombre de points 	53
															
# Numero | Position	| Pression  | Temperature |   Vitesse   | Puissance |  Flux   | Titre de | Nbre de bulles |   Frequence    | Temps vapeur |   Taux  | Vitesse  |  Ai   | Diametre  | Diametre |  Densite 
#        |          | de sortie |   entree    |   massique  |           |         |  sortie  |    traitees    | d'interception |     moyen    | de vide | calcul­ee |       | de Sauter |    Dg    | de centre 
#        |          |   (bar)   |   (°C)      | (kg.m².s-¹) |   (kW)    | (kW.m²) |          |                |      (Hz)      |      (s)     |         | (m.s-¹)  | (m-¹) |   (m)     |   (m)    | (10⁶.m².s-¹)         

1	-0.009199	26.19	65.61	3059	27.2	128.84	0.0597	208000	7598.971282	4.10E-05	0.3116	2.86	10611.6	0.000176	0.000106	868976
2	-0.00903	26.21	65.59	3058	27.2	128.84	0.0593	198000	7021.41651	4.49E-05	0.3152	3.01	9325	0.000203	0.000124	584544.4
3	-0.00885	26.2	65.59	3056.6	27.2	128.84	0.0596	179000	6431.673245	4.80E-05	0.3087	3.13	8213.4	0.000226	0.00014	    418127.1
4	-0.008668	26.21	65.57	3058.2	27.2	128.84	0.0589	159000	5913.864851	5.02E-05	0.297	3.23	7321.8	0.000243	0.000153	321213.3
5	-0.008487	26.19	65.56	3063.3	27.2	128.84	0.0588	191000	5567.213977	5.26E-05	0.2926	3.31	6720.4	0.000261	0.000167	255605.7
6	-0.008307	26.18	65.58	3062.6	27.2	128.84	0.0593	177000	5277.777615	5.46E-05	0.2881	3.39	6235.9	0.000277	0.000177	213714.8
7	-0.008124	26.18	65.57	3061.3	27.2	128.84	0.0594	148000	4987.892903	5.67E-05	0.2829	3.45	5783.1	0.000293	0.000191	173467.1
8	-0.007941	26.16	65.57	3062.6	27.2	128.84	0.0597	186000	4763.975355	5.84E-05	0.2785	3.51	5431.9	0.000308	0.000204	145875
9	-0.007761	26.18	65.55	3062	27.2	128.84	0.0591	182000	4413.052956	6.00E-05	0.265	3.56	4958.2	0.000321	0.000213	123623.2
10	-0.007578	26.16	65.52	3061.5	27.2	128.84	0.0593	192000	4199.6053	6.11E-05	0.2565	3.61	4654.8	0.000331	0.000225	105720
11	-0.007394	26.17	65.57	3063.7	27.2	128.84	0.0594	185000	4011.089199	6.26E-05	0.2509	3.65	4390.9	0.000343	0.000235	92267.9
12	-0.007212	26.17	65.57	3064.7	27.1	128.37	0.058	179000	3933.670866	6.38E-05	0.2509	3.7	    4257.7	0.000354	0.000247	82167.4
13	-0.00703	26.15	65.6	3053.6	27.2	128.84	0.0614	173000	3710.9836	6.49E-05	0.2409	3.73	3974.7	0.000364	0.000257	71384.1
14	-0.006845	26.16	65.59	3057.6	27.2	128.84	0.0606	166000	3555.339477	6.59E-05	0.2343	3.77	3770.4	0.000373	0.000266	63956.9
15	-0.006662	26.17	65.51	3063.4	27.2	128.84	0.0586	177000	3296.98146	6.66E-05	0.2197	3.81	3464.4	0.000381	0.000276	55196.7
16	-0.006479	26.17	65.51	3063.3	27.2	128.84	0.0585	164000	3252.179924	6.76E-05	0.2197	3.84	3388	0.000389	0.000286	50691.9
17	-0.006294	26.15	65.51	3064.5	27.2	128.84	0.0589	171000	3121.617161	6.83E-05	0.2132	3.87	3225.3	0.000397	0.000295	45640.8
18	-0.006099	26.16	65.57	3058.3	27.2	128.84	0.0602	179000	2937.658322	6.88E-05	0.2021	3.9	    3010.5	0.000403	0.000303	40793.7
19	-0.005917	26.15	65.56	3059.2	27.2	128.84	0.0603	160000	2816.143256	6.95E-05	0.1958	3.93	2865.2	0.00041	    0.000314	36467.7
20	-0.005732	26.15	65.54	3065.6	27.1	128.52	0.0583	157000	2717.673394	6.98E-05	0.1897	3.96	2745.6	0.000414	0.000319	34026.1
21	-0.005545	26.19	65.55	3062.9	27.1	128.37	0.0574	180000	2545.45941	7.04E-05	0.1791	3.99	2554.4	0.000421	0.000326	30411
22	-0.005359	26.17	65.55	3067.1	27.2	128.84	0.0588	150000	2451.168097	7.04E-05	0.1725	4.01	2444.1	0.000424	0.000329	28906.3
23	-0.005171	26.16	65.57	3058.5	27.2	128.84	0.0602	151000	2337.107155	7.10E-05	0.166	4.04	2316	0.00043	    0.000336	26422.8
24	-0.004983	26.17	65.58	3052.3	27.2	128.79	0.0607	140000	2277.612589	7.11E-05	0.1619	4.06	2243.6	0.000433	0.000338	25330.6
25	-0.004796	26.17	65.55	3063.6	27.2	128.84	0.0592	151000	2094.228446	7.11E-05	0.1489	4.08	2051.3	0.000435	0.000343	22663
26	-0.004607	26.15	65.52	3059.1	27.2	128.84	0.0597	144000	2035.011858	7.11E-05	0.1447	4.11	1982.3	0.000438	0.000346	21676.6
27	-0.004415	26.17	65.59	3064.5	27.2	128.84	0.0595	132000	1979.141241	7.11E-05	0.1408	4.13	1917.6	0.000441	0.000349	20714.3
28	-0.004225	26.16	65.61	3057.1	27.2	128.84	0.0609	120000	1916.759808	7.12E-05	0.1364	4.15	1847.6	0.000443	0.000352	19655.3
29	-0.004037	26.16	65.57	3062.1	27.2	128.84	0.0598	161000	1784.074923	7.08E-05	0.1263	4.17	1711.3	0.000443	0.000352	18288.8
30	-0.003846	26.16	65.54	3062.2	27.2	128.84	0.0595	142000	1705.381755	7.10E-05	0.1211	4.19	1627.9	0.000446	0.000358	16933.8
31	-0.003657	26.16	65.56	3056.2	27.2	128.84	0.0604	142000	1613.734334	7.06E-05	0.114	4.21	1533.4	0.000446	0.000359	15960.9
32	-0.003467	26.17	65.53	3071.5	27.2	128.84	0.0581	159000	1552.31968	7.05E-05	0.1095	4.23	1468.4	0.000447	0.00036	    15215.2
33	-0.003275	26.16	65.57	3067	27.2	128.84	0.0593	140000	1486.081361	7.02E-05	0.1043	4.25	1399.5	0.000447	0.000361	14505.7
34	-0.003083	26.16	65.6	3058.1	27.2	128.84	0.0605	131000	1437.265956	6.99E-05	0.1005	4.27	1347.8	0.000448	0.000362	13942.5
35	-0.002892	26.17	65.62	3057.5	27.2	128.84	0.0608	145000	1394.648548	6.96E-05	0.0971	4.28	1302.4	0.000447	0.000361	13614.6
36	-0.002701	26.16	65.61	3071.8	27.2	128.84	0.0593	140000	1313.882577	6.94E-05	0.0912	4.3	    1222.1	0.000448	0.000362	12779.2
37	-0.00251	26.17	65.63	3059.8	27.2	128.84	0.0606	131000	1261.77318	6.89E-05	0.0869	4.32	1169.1	0.000446	0.000362	12290
38	-0.002317	26.16	65.6	3067.2	27.2	128.84	0.0596	123000	1194.801467	6.83E-05	0.0816	4.33	1102.8	0.000444	0.000359	11800.9
39	-0.002122	26.18	65.58	3065.7	27.2	128.84	0.0591	120000	1146.226873	6.83E-05	0.0782	4.35	1054	0.000445	0.000363	11104.3
40	-0.001931	26.17	65.62	3062.6	27.2	128.84	0.0602	119000	1111.730116	6.79E-05	0.0755	4.37	1018.6	0.000445	0.000362	10820.5
41	-0.001738	26.15	65.6	3067.3	27.2	128.84	0.0598	107000	1070.883343	6.72E-05	0.072	4.38	977.7	0.000442	0.000358	10638.7
42	-0.001545	26.17	65.59	3058.8	27.2	128.84	0.0603	109000	1028.383462	6.69E-05	0.0688	4.4	    935.6	0.000441	0.000358	10233.1
43	-0.00135	26.16	65.61	3066	27.1	128.37	0.0587	118000	995.0242595	6.67E-05	0.0664	4.41	902.2	0.000442	0.000358	9906.6
44	-0.001158	26.16	65.56	3071.5	27.1	128.37	0.0574	114000	971.7379797	6.64E-05	0.0645	4.43	878.2	0.000441	0.000358	9649.3
45	-0.000962	26.16	65.62	3066.1	27.1	128.37	0.0587	109000	973.8425664	6.62E-05	0.0644	4.44	877.2	0.000441	0.000358	9669.8
46	-0.000767	26.17	65.68	3060.6	27.2	128.84	0.0613	102000	982.0194344	6.61E-05	0.0649	4.45	881.7	0.000442	0.00036	    9649
47	-0.000573	26.16	65.69	3054.2	27.2	128.84	0.0624	112000	963.3146334	6.60E-05	0.0636	4.47	862.3	0.000442	0.000359	9541.9
48	-0.00038	26.16	65.65	3063.5	27.2	128.84	0.0606	112000	970.4141824	6.59E-05	0.064	4.48	866	    0.000443	0.000361	9472.3
49	-0.000183	26.17	65.69	3061.1	27.2	128.84	0.0613	110000	954.828355	6.59E-05	0.0629	4.5	    849.5	0.000444	0.000361	9310.3
50	4.00E-06	26.15	65.62	3064.2	27.2	128.84	0.0604	111000	930.0413971	6.60E-05	0.0614	4.51	825.2	0.000447	0.000363	8967.8
51	0.000203	26.19	65.57	3067	27.2	128.84	0.0586	124000	926.4903089	6.60E-05	0.0612	4.49	824.6	0.000445	0.000361	9054.3
52	0.000396	26.15	65.52	3057.6	27.2	128.84	0.0599	106000	930.1177319	6.63E-05	0.0617	4.48	830.3	0.000446	0.000362	9036.5
53	0.000595	26.15	65.56	3071.5	27.2	128.84	0.0589	110000	984.7586225	6.67E-05	0.0656	4.47	881.8	0.000447	0.000365	9430.6

